Specifikace monitoru
Veliďż˝ina: Reactions - Dof(2)
Zadanďż˝ umďż˝stďż˝nďż˝: X: 0.3000 [m], Y: -0.0500 [m], Uzel sďż˝tďż˝
Dopoďż˝tenďż˝ umďż˝stďż˝nďż˝: X: 0.3000 [m], Y: -0.0500 [m], Uzel sďż˝tďż˝ 7
Vďż˝sledky v monitorovacďż˝m bodďż˝
 Hodnoty pďż˝enďż˝sobeny koeficientem 1.000 [-]
-----------------
 Krok     Hodnota
             [MN]
-----------------
    1   1.208E+00
    2   1.833E+00
    3   1.860E+00
    4   1.886E+00
    5   1.913E+00
    6   1.940E+00
    7   1.966E+00
    8   1.993E+00
    9   2.020E+00
   10   2.046E+00
   11   2.073E+00
   12   2.100E+00
   13   2.127E+00
   14   2.153E+00
   15   2.180E+00
   16   2.207E+00
   17   2.233E+00
   18   2.260E+00
   19   2.287E+00
   20   2.313E+00
   21   2.340E+00
   22   2.367E+00
   23   2.394E+00
   24   2.420E+00
   25   2.447E+00
   26   2.474E+00
   27   2.500E+00
   28   2.527E+00
   29   2.554E+00
   30   2.580E+00
   31   2.607E+00
   32   2.634E+00
   33   2.661E+00
   34   2.687E+00
   35   2.714E+00
   36   2.741E+00
   37   2.767E+00
   38   2.794E+00
   39   2.821E+00
   40   2.847E+00
   41   2.874E+00
   42   2.901E+00
   43   2.927E+00
   44   2.954E+00
   45   2.981E+00
   46   3.007E+00
   47   3.034E+00
   48   3.061E+00
   49   3.087E+00
   50   3.114E+00
   51   3.141E+00
   52   3.168E+00
   53   3.194E+00
   54   3.221E+00
   55   3.247E+00
   56   3.274E+00
   57   3.300E+00
   58   3.327E+00
   59   3.354E+00
   60   3.380E+00
   61   3.407E+00
   62   3.434E+00
   63   3.460E+00
   64   3.485E+00
   65   3.511E+00
   66   3.536E+00
   67   3.562E+00
   68   3.587E+00
   69   3.606E+00
   70   3.624E+00
   71   3.650E+00
   72   3.673E+00
   73   3.694E+00
   74   3.718E+00
   75   3.744E+00
   76   3.766E+00
   77   3.786E+00
   78   3.810E+00
   79   3.832E+00
   80   3.853E+00
   81   3.875E+00
   82   3.891E+00
   83   3.914E+00
   84   3.935E+00
   85   3.941E+00
   86   3.952E+00
   87   3.962E+00
   88   3.986E+00
   89   3.988E+00
   90   4.013E+00
   91   4.005E+00
   92   4.030E+00
   93   4.023E+00
   94   4.028E+00
